function c=tissue_specific_extinction_coefficient_650to1000;
% Specific	extinction	coeffs	taken from BORL
% Water measured by Matcher at 37Celcius
% specific extinction coefficients in	OD/M/cm

%__________________________________________________________________________
% Specific Extinction is described using base 10 logarithm units and Specific Absorption is
% described using natural logarithm units. The difference between them is a
% scaling factor of ln10:specific absorption coefficient = specific
% extinction coefficient x 2.3025851.
%__________________________________________________________________________

% ---------------------------------------------------------------------------------------------------------
%Wavelengths(nm)	Water(OD/M/cm)	HbO2 (OD/M/cm)	HHb (OD/M/cm)
%Difference Cytochrome Oxidase (OD/M/cm) ox-redCCO (OD/M/cm)_Moody 
%oxCCO (OD/M/cm)_Moody redCCO (OD/M/cm)_Moody Fat Soybean (OD/cm)_Ekker
%
% ---------------------------------------------------------------------------------------------------------
c=[
650	2.50903E-05	386.80	3734.15	4929.24	3561.2362	6907.4375	3346.2013	0.013596284
651	2.52708E-05	379.20	3702.97	4892.33	3546.7362	6851.975	3305.2388	0.013719557
652	2.61733E-05	372.10	3671.79	4855.41	3535.7162	6807.025	3271.3088	0.013596284
653	2.59928E-05	365.81	3640.47	4806.77	3525.3125	6760.625	3235.3125	0.013348998
654	2.65343E-05	360.01	3611.68	4758.13	3508.6737	6715.3125	3206.6388	0.013100232
655	2.54513E-05	354.41	3583.19	4702.97	3490.005	6665.65	3175.645	0.012941531
656	2.59928E-05	349.41	3554.61	4648.25	3469.415	6613.0875	3143.6725	0.012840481
657	2.56318E-05	345.01	3525.99	4587.89	3442.6263	6553.6375	3111.0112	0.012743883
658	2.87004E-05	340.91	3497.33	4527.95	3415.91	6494.55	3078.64	0.012639359
659	2.76173E-05	337.52	3468.62	4463.68	3379.9137	6430.3875	3050.4738	0.012520503
660	2.99639E-05	334.52	3439.92	4399.84	3336.6312	6354.625	3017.9938	0.012363973
661	2.99639E-05	331.71	3405.35	4332.00	3297.5538	6283.2125	2985.6587	0.012172429
662	2.94224E-05	329.32	3370.86	4263.90	3244.0125	6202.7375	2958.725	0.012069478
663	2.96029E-05	327.52	3336.25	4191.72	3185.4688	6113.2	2927.7312	0.012164246
664	2.87004E-05	325.92	3298.16	4119.54	3120.1462	6020.7625	2900.6163	0.012386991
665	2.96029E-05	324.42	3257.38	4044.58	3045.1087	5919.2625	2874.1538	0.012639138
666	2.96029E-05	323.32	3216.60	3969.50	2969.455	5815.5875	2846.1325	0.012885648
667	2.96029E-05	322.62	3175.39	3897.32	2884.775	5705.75	2820.975	0.013119333
668	2.90614E-05	321.92	3131.91	3825.14	2803.9375	5600.9875	2797.05	0.013380874
669	3.01444E-05	321.52	3088.31	3751.96	2713.3487	5488.6125	2775.2638	0.013682552
670	2.99639E-05	321.22	3044.71	3678.78	2623.5213	5374.0625	2750.5412	0.013875188
671	2.92419E-05	321.12	2998.54	3606.38	2537.2825	5266.4	2729.1175	0.013826607
672	3.03249E-05	321.12	2951.16	3533.98	2454.705	5164.175	2709.47	0.013634111
673	3.08664E-05	321.32	2903.78	3462.63	2356.7575	5044.1875	2687.43	0.013415061
674	3.213E-05	321.32	2856.18	3391.23	2279.6175	4950.3	2670.6825	0.013137582
675	2.99639E-05	321.02	2807.97	3321.57	2201.245	4856.4125	2655.1675	0.012752053
676	2.99639E-05	320.72	2759.90	3251.87	2116.3112	4754.55	2638.2388	0.012287103
677	3.08664E-05	320.52	2711.69	3183.29	2034.2412	4651.9625	2617.7213	0.01178992
678	3.10469E-05	320.42	2664.53	3114.80	1965.6925	4572.9375	2607.245	0.011303686
679	3.10469E-05	320.02	2617.62	3055.44	1891.235	4478.325	2587.09	0.010858673
680	3.19495E-05	319.32	2570.63	2996.02	1810.905	4381.9	2570.995	0.01043753
681	3.30325E-05	318.52	2524.16	2948.86	1739.3837	4298.1625	2558.7788	0.010019615
682	3.4296E-05	318.02	2478.17	2901.65	1681.4925	4234	2552.5075	0.009618754
683	3.30325E-05	317.22	2432.27	2861.57	1619.94	4158.2375	2538.2975	0.009249746
684	3.26715E-05	316.22	2386.40	2821.57	1558.6413	4088.275	2529.6337	0.008896826
685	3.3935E-05	315.62	2343.02	2785.17	1502.5625	4016.5	2513.9375	0.008545568
686	3.48375E-05	315.02	2299.81	2748.69	1448.695	3952.7	2504.005	0.00821746
687	3.61011E-05	313.92	2256.64	2717.29	1394.6462	3887.0875	2492.4413	0.007931802
688	3.68231E-05	313.42	2215.64	2685.94	1351.1825	3829.8125	2478.63	0.007663213
689	3.82671E-05	312.52	2176.64	2659.01	1304.4925	3776.1625	2471.67	0.007392104
690	3.70036E-05	312.22	2137.64	2632.13	1263.4213	3726.8625	2463.4412	0.007166728
691	3.97112E-05	312.12	2099.16	2608.63	1227.0987	3679.0125	2451.9138	0.007038198
692	4.06137E-05	312.12	2065.07	2585.05	1188.8913	3635.875	2446.9837	0.007001218
693	4.04332E-05	312.22	2030.98	2565.55	1150.9375	3594.6225	2443.685	0.007021003
694	4.11552E-05	312.42	1996.89	2546.14	1115.775	3554.53	2438.755	0.007001218
695	4.29603E-05	312.92	1966.01	2523.34	1084.3462	3513.06	2428.7138	0.006856485
696	4.54874E-05	313.92	1936.52	2500.67	1054.9113	3478.4775	2423.5662	0.006606792
697	4.63899E-05	314.72	1907.12	2479.95	1025.2225	3436.9713	2411.7488	0.006301347
698	4.69314E-05	316.32	1878.63	2459.28	1003.3275	3403.8025	2400.475	0.006000864
699	5.01805E-05	318.02	1852.53	2437.00	983.3538	3376.1075	2392.7537	0.005752083
700	5.1444E-05	319.82	1826.56	2414.81	964.0688	3350.1888	2386.12	0.005534345
701	5.05415E-05	321.82	1800.54	2391.57	945.2912	3328.5475	2383.2563	0.005323309
702	5.1083E-05	324.22	1777.26	2368.38	933.655	3314.12	2380.465	0.005147302
703	5.34296E-05	326.82	1754.33	2343.19	919.6625	3295.56	2375.8975	0.005039643
704	5.43321E-05	329.52	1731.45	2317.92	909.8025	3278.2688	2368.4663	0.005000944
705	5.50542E-05	332.21	1709.47	2294.90	903.9663	3263.2975	2359.3312	0.005011236
706	5.68592E-05	335.11	1688.28	2271.92	897.0425	3248.8338	2351.7913	0.005000944
707	6.10108E-05	338.52	1667.08	2244.04	887.5812	3234.1525	2346.5713	0.004901793
708	6.20939E-05	341.71	1645.98	2216.12	886.5662	3225.0537	2338.4875	0.004700326
709	6.26354E-05	344.91	1626.30	2188.32	887.9075	3215.23	2327.3225	0.004423357
710	6.58845E-05	348.41	1606.59	2160.66	888.4875	3209.285	2320.7975	0.004203971
711	7.00361E-05	352.31	1586.91	2135.64	890.9162	3200.9112	2309.995	0.004162846
712	7.12996E-05	356.31	1567.28	2110.67	896.2087	3197.0325	2300.8238	0.004264772
713	7.49097E-05	360.11	1547.70	2081.57	902.8424	3194.0237	2291.1813	0.004449067
714	7.85199E-05	363.81	1528.11	2052.48	909.4037	3188.4412	2279.0375	0.004709055
715	8.2491E-05	367.91	1508.91	2024.98	922.9251	3186.3388	2263.4137	0.005049134
716	8.57401E-05	372.30	1490.32	1997.49	932.64	3182.17	2249.53	0.005463989
717	8.91697E-05	376.40	1471.74	1973.09	943.5513	3182.75	2239.1987	0.005940975
718	9.42238E-05	380.60	1453.15	1948.72	957.8338	3184.2	2226.3662	0.00644784
719	9.9639E-05	385.30	1436.12	1926.92	970.9925	3183.33	2212.3375	0.006952749
720	0.000101264	389.80	1419.32	1905.03	984.9124	3184.5262	2199.6138	0.007445154
721	0.000106859	394.20	1402.55	1887.40	999.4125	3188.6225	2189.21	0.007929998
722	0.000112274	398.70	1387.14	1869.81	1013.8763	3197.5763	2183.7	0.008452891
723	0.000117509	403.40	1372.94	1857.35	1028.7025	3202.5425	2173.84	0.009056525
724	0.000120217	408.20	1358.86	1844.84	1045.0513	3206.82	2161.7687	0.009731236
725	0.000127617	413.20	1345.27	1835.24	1065.1337	3210.0825	2144.9488	0.010458295
726	0.000133394	418.00	1334.85	1825.64	1082.6425	3218.2025	2135.56	0.011235068
727	0.000141155	422.89	1324.55	1817.52	1100.0787	3221.7912	2121.7125	0.012070345
728	0.000148014	427.99	1314.26	1809.44	1114.8687	3226.2137	2111.345	0.013002516
729	0.000155415	433.09	1307.75	1805.36	1131.1812	3233.2825	2102.1013	0.014035131
730	0.00016444	438.16	1302.58	1801.24	1147.5662	3238.865	2091.2988	0.01500279
731	0.00017491	443.37	1297.28	1800.54	1165.1113	3244.4113	2079.3	0.015738263
732	0.000185018	448.67	1294.28	1799.93	1181.6413	3251.3713	2069.73	0.016235969
733	0.000196209	453.88	1294.68	1799.46	1197.9538	3260.2163	2062.2625	0.016542019
734	0.000205235	459.18	1294.98	1798.93	1214.1574	3267.2487	2053.0913	0.016747655
735	0.000213357	464.48	1295.59	1800.54	1231.63	3273.8463	2042.2163	0.016923295
736	0.000220217	469.86	1302.45	1802.15	1246.275	3281.205	2034.93	0.017010924
737	0.000225632	475.25	1309.27	1804.06	1262.7325	3288.7813	2026.0488	0.016978425
738	0.000229964	480.94	1316.09	1805.93	1285.86	3296.865	2011.005	0.01702569
739	0.000232852	486.37	1327.38	1810.23	1307.6463	3305.5288	1997.8825	0.017363953
740	0.000237184	491.84	1340.75	1814.53	1323.3062	3317.4187	1994.1125	0.018017792
741	0.000236462	497.44	1354.17	1820.82	1339.1475	3327.5325	1988.385	0.018948199
742	0.000237365	503.04	1369.33	1827.03	1355.9674	3337.5012	1981.5338	0.020048466
743	0.000238267	508.73	1388.35	1833.24	1378.8413	3347.47	1968.6287	0.021228209
744	0.00023917	514.55	1407.46	1839.41	1394.3562	3355.59	1961.2338	0.022530025
745	0.000236823	520.15	1426.44	1844.62	1411.6837	3367.6975	1956.0138	0.023994548
746	0.000236643	525.76	1449.72	1849.75	1430.9688	3379.515	1948.5462	0.025521576
747	0.000236101	531.58	1473.21	1853.83	1453.0812	3390.5712	1937.49	0.027008291
748	0.000235379	537.48	1496.71	1858.04	1468.2337	3401.3012	1933.0675	0.028482248
749	0.000236823	543.48	1520.81	1863.04	1484.0025	3409.9288	1925.9263	0.029975395
750	0.000233935	549.34	1545.39	1868.03	1501.0037	3422.3262	1921.3225	0.031406874
751	0.00023574	555.25	1569.89	1876.33	1519.5638	3435.5575	1915.9937	0.03267714
752	0.00023574	561.15	1593.38	1884.62	1534.1725	3446.505	1912.3325	0.033724704
753	0.000235921	567.06	1613.79	1891.22	1552.8775	3459.41	1906.5325	0.034538224
754	0.000235379	572.96	1634.16	1897.82	1571.1113	3467.3488	1896.2375	0.035268881
755	0.000234116	578.96	1654.49	1901.43	1588.185	3478.3325	1890.1475	0.036078236
756	0.000232491	585.47	1664.17	1905.03	1605.585	3491.745	1886.16	0.037006841
757	0.000233935	591.03	1672.86	1908.12	1622.3687	3502.185	1879.8163	0.038033011
758	0.000232671	597.24	1681.59	1911.20	1638.79	3512.8788	1874.0888	0.039007114
759	0.000230686	602.93	1681.15	1914.33	1654.5225	3524.4425	1869.92	0.039779562
760	0.000230144	609.45	1674.07	1917.32	1671.5237	3537.42	1865.8963	0.040328889
761	0.000230505	615.53	1667.00	1920.10	1689.54	3548.8025	1859.2625	0.040649724
762	0.000227617	621.74	1656.18	1923.01	1703.7862	3560.2575	1856.4713	0.040672938
763	0.000225993	628.12	1633.90	1928.01	1720.9687	3575.6275	1854.6588	0.040277575
764	0.000225812	634.33	1611.71	1933.00	1735.3963	3585.8863	1850.49	0.039199116
765	0.000224729	640.54	1589.39	1938.60	1752.0349	3599.0812	1847.0463	0.037279502
766	0.000225451	646.75	1557.81	1944.12	1767.4412	3610.6812	1843.24	0.034930088
767	0.000223646	653.35	1525.50	1949.29	1786.1462	3623.55	1837.4038	0.032560691
768	0.00022148	659.43	1493.10	1954.41	1798.5437	3634.0625	1835.5188	0.030005579
769	0.000219675	665.64	1458.62	1959.71	1814.0225	3644.9375	1830.915	0.027068261
770	0.000219856	671.81	1422.53	1965.10	1828.16	3655.45	1827.29	0.024004759
771	0.000218051	678.32	1386.53	1970.00	1841.065	3667.4125	1826.3475	0.021120507
772	0.000216787	684.71	1350.96	1974.91	1855.0212	3678.2875	1823.2663	0.018466071
773	0.000213899	690.92	1316.56	1980.51	1868.8325	3688.4375	1819.605	0.016021283
774	0.000213538	697.22	1282.17	1986.20	1880.4687	3696.4125	1815.9438	0.013737907
775	0.000214982	703.60	1247.77	1994.71	1893.7725	3706.5625	1812.79	0.011605729
776	0.000211191	709.94	1217.20	2003.18	1908.635	3718.1625	1809.5275	0.009794687
777	0.000208303	716.41	1186.71	2015.00	1922.7362	3729.4	1806.6638	0.008435056
778	0.000207401	722.71	1156.31	2026.77	1934.9162	3737.375	1802.4588	0.007318296
779	0.000207581	729.53	1129.51	2038.19	1947.785	3746.4375	1798.6525	0.006238253
780	0.000206137	735.83	1104.71	2049.48	1961.0163	3755.5	1794.4837	0.005337132
781	0.00020343	741.99	1080.05	2060.68	1974.7187	3764.925	1790.2063	0.004763752
782	0.000201805	748.29	1056.81	2071.89	1987.5513	3773.9875	1786.4362	0.004345029
783	0.000201625	754.72	1036.92	2084.57	2002.4137	3784.1375	1781.7238	0.003882806
784	0.000198375	761.10	1017.03	2097.38	2015.065	3791.3875	1776.3225	0.003400526
785	0.000196209	767.92	997.23	2107.54	2027.4262	3798.275	1770.8488	0.00296093
786	0.000193502	774.09	981.94	2117.75	2040.7663	3805.525	1764.7587	0.002562337
787	0.000190433	780.60	966.57	2126.57	2054.505	3814.5875	1760.0825	0.002207382
788	0.000191516	787.20	951.28	2135.47	2068.135	3822.2	1754.065	0.001980383
789	0.000190072	793.89	938.25	2142.77	2079.0462	3827.6375	1748.5913	0.001944104
790	0.000187004	800.32	926.18	2150.06	2092.3863	3835.25	1742.8637	0.001993412
791	0.000184838	806.79	914.06	2156.66	2104.7837	3842.5	1737.7163	0.002011415
792	0.000184477	813.17	903.16	2163.26	2118.2325	3850.475	1732.2425	0.002002098
793	0.000182671	819.47	893.69	2175.73	2130.485	3855.9125	1725.4275	0.001995137
794	0.000181408	826.20	884.18	2188.15	2141.8675	3862.4375	1720.57	0.002002098
795	0.000177437	832.80	874.97	2200.96	2153.3588	3867.5125	1714.1537	0.002044513
796	0.000175812	838.97	867.37	2213.64	2164.0888	3872.225	1708.1362	0.002201873
797	0.00017491	845.57	859.77	2227.32	2175.725	3878.025	1702.3	0.00253047
798	0.000174007	852.17	852.17	2241.05	2184.57	3878.3875	1693.8175	0.002935831
799	0.000171661	858.60	845.88	2251.21	2195.3362	3887.0875	1691.7513	0.003314036
800	0.000172563	865.07	839.66	2261.33	2205.2325	3891.075	1685.8425	0.003674131
801	0.000171661	871.37	833.58	2266.02	2217.63	3897.9625	1680.3325	0.004045705
802	0.000168953	877.80	828.29	2270.71	2225.17	3900.1375	1674.9675	0.004427545
803	0.000169495	884.27	823.51	2275.62	2233.7612	3903.0375	1669.2763	0.004823721
804	0.000168773	890.69	818.78	2280.61	2241.0475	3907.75	1666.7025	0.005290228
805	0.000168231	897.08	814.39	2286.43	2251.8137	3912.825	1661.0113	0.005869715
806	0.000167509	903.55	810.91	2292.12	2259.39	3915.3625	1655.9725	0.006499521
807	0.000166606	909.98	807.31	2298.50	2268.1262	3919.35	1651.2238	0.007105813
808	0.00016769	916.19	803.79	2304.93	2273.165	3920.4375	1647.2725	0.007675373
809	0.000169314	922.48	801.19	2310.79	2281.8287	3925.5125	1643.6838	0.008213526
810	0.000170036	928.87	798.49	2316.61	2288.1363	3930.5875	1642.4512	0.008739134
811	0.000171841	935.17	795.89	2320.61	2294.4075	3933.4875	1639.08	0.009273346
812	0.000172924	941.38	793.89	2324.69	2298.3225	3935.3	1636.9775	0.009832905
813	0.00017491	947.54	791.98	2327.51	2304.7387	3937.475	1632.7363	0.010426639
814	0.000174007	953.67	790.20	2330.29	2308.5088	3937.475	1628.9662	0.011036118
815	0.000177617	960.05	788.59	2332.90	2314.6712	3940.375	1625.7038	0.01163531
816	0.000179603	966.35	787.20	2335.51	2318.8038	3942.55	1623.7462	0.012195032
817	0.000182491	972.56	785.90	2338.20	2323.4437	3943.275	1619.8313	0.012697284
818	0.000184296	978.64	784.68	2340.89	2327.975	3944	1616.025	0.013171934
819	0.000183935	984.55	783.99	2343.58	2332.325	3944.3625	1612.0375	0.013661898
820	0.000188989	990.84	783.21	2346.32	2335.5875	3944.725	1609.1375	0.014214415
821	0.000190614	997.05	782.51	2347.19	2339.3937	3944.3625	1604.9688	0.014859455
822	0.000191336	1002.96	781.99	2348.01	2340.1912	3942.55	1602.3588	0.015553605
823	0.000197292	1008.82	781.51	2346.49	2341.895	3939.2875	1597.3925	0.016227364
824	0.000202708	1015.03	780.99	2344.89	2343.8162	3940.0125	1596.1963	0.01678027
825	0.000206498	1020.85	780.69	2342.32	2344.8312	3939.65	1594.8188	0.017148004
826	0.000219856	1027.02	780.60	2339.72	2346.0638	3938.925	1592.8612	0.017441787
827	0.000227437	1033.06	780.38	2336.29	2347.0062	3937.1125	1590.1063	0.017765783
828	0.000240614	1039.05	780.30	2332.90	2347.5137	3935.3	1587.7863	0.018020398
829	0.000249819	1044.65	780.21	2329.43	2348.2388	3933.85	1585.6112	0.018106843
830	0.000263357	1050.43	780.21	2325.91	2346.4625	3932.0375	1585.575	0.018133315
831	0.000272563	1056.12	780.21	2322.69	2346.4262	3929.5	1583.0738	0.018191097
832	0.000286282	1061.85	780.21	2319.39	2343.78	3927.325	1583.545	0.018096834
833	0.000295668	1067.71	780.21	2316.83	2344.9037	3924.425	1579.5213	0.017681901
834	0.000298917	1073.62	780.30	2314.23	2343.055	3922.975	1579.92	0.017111246
835	0.000306679	1079.44	780.30	2312.53	2341.2425	3921.8875	1580.645	0.016592545
836	0.000314079	1084.82	780.38	2310.71	2340.0462	3921.525	1581.4788	0.016170825
837	0.000314079	1090.43	780.51	2310.01	2339.9737	3919.7125	1579.7388	0.01584023
838	0.000317329	1095.94	780.69	2309.23	2335.3337	3913.1875	1577.8538	0.01555404
839	0.000320036	1101.50	780.99	2308.41	2329.715	3906.6625	1576.9475	0.015257451
840	0.000324007	1106.93	781.30	2307.49	2326.9238	3902.3125	1575.3887	0.014904205
841	0.000327256	1112.53	781.51	2305.63	2323.1175	3899.05	1575.9325	0.01446609
842	0.000325812	1117.92	781.82	2303.72	2318.84	3894.7	1575.86	0.01397855
843	0.000327437	1123.00	782.12	2301.33	2316.9912	3889.2625	1572.2713	0.013496101
844	0.000328881	1128.30	782.51	2298.89	2312.895	3887.0875	1574.1925	0.013085901
845	0.000331227	1133.60	783.12	2296.64	2310.3575	3882.7375	1572.38	0.012788199
846	0.000333574	1138.81	783.68	2294.20	2304.0863	3874.0375	1569.9512	0.012522968
847	0.000335018	1143.89	784.29	2292.81	2298.25	3868.2375	1569.9875	0.012224192
848	0.000339892	1149.10	784.81	2291.34	2293.2113	3864.975	1571.7637	0.012002162
849	0.000342599	1154.40	785.42	2290.60	2289.3687	3860.9875	1571.6188	0.01196079
850	0.000345307	1159.31	785.90	2289.90	2280.8863	3854.825	1573.9387	0.012002162
851	0.000344404	1164.21	786.90	2287.30	2276.0288	3845.7625	1569.7337	0.012010721
852	0.000349458	1169.12	787.81	2284.74	2265.6613	3837.425	1571.7637	0.012002162
853	0.000348556	1173.90	788.81	2279.92	2258.81	3830.175	1571.365	0.012009299
854	0.000348375	1178.72	789.89	2275.14	2252.9375	3825.4625	1572.525	0.012002162
855	0.000349097	1183.89	790.98	2267.93	2249.2037	3817.85	1568.6463	0.011967824
856	0.00035361	1188.19	792.11	2260.72	2241.0112	3809.875	1568.8638	0.012024311
857	0.000353791	1193.09	793.28	2252.12	2234.2325	3802.9875	1568.755	0.012259258
858	0.000355415	1197.70	794.72	2243.61	2226.9825	3796.825	1569.8425	0.012507768
859	0.000355957	1202.30	796.11	2236.75	2222.2338	3787.7625	1565.5287	0.012654855
860	0.000357581	1206.77	797.49	2229.75	2214.5487	3777.6125	1563.0638	0.013037694
861	0.000361191	1211.07	799.10	2225.32	2204.0725	3768.55	1564.4775	0.013946115
862	0.000361372	1215.29	800.71	2220.85	2198.7075	3760.575	1561.8675	0.015028413
863	0.000362455	1219.67	802.32	2216.42	2193.0163	3751.5125	1558.4962	0.015944487
864	0.000360289	1224.19	804.18	2212.12	2189.3912	3743.5375	1554.1463	0.017042193
865	0.000367148	1228.27	806.09	2206.35	2180.5825	3736.2875	1555.705	0.018674044
866	0.000364801	1232.18	808.00	2200.44	2171.1938	3732.3	1561.1062	0.020523237
867	0.000369134	1236.39	810.00	2193.53	2163.4725	3723.2375	1559.765	0.022239094
868	0.000368953	1240.39	812.00	2186.63	2150.5675	3711.275	1560.7075	0.024004759
869	0.000376354	1244.60	814.09	2176.73	2139.765	3698.95	1559.185	0.026020353
870	0.000380505	1248.68	816.39	2166.87	2128.8537	3688.4375	1559.5838	0.028020072
871	0.000381949	1252.59	818.69	2152.36	2121.7488	3679.0125	1557.2637	0.029820772
872	0.000381047	1256.20	821.08	2137.86	2116.5287	3671.0375	1554.5088	0.032035863
873	0.000385921	1259.80	823.51	2125.05	2104.6025	3661.975	1557.3725	0.035176463
874	0.000389892	1263.80	825.90	2112.28	2096.2287	3654	1557.7713	0.038547978
875	0.000392058	1267.49	828.29	2102.38	2086.4412	3643.4875	1557.0463	0.041541499
876	0.000392419	1270.66	830.81	2092.47	2075.0225	3633.3375	1558.315	0.045096574
877	0.000400181	1274.26	833.37	2084.05	2064.2924	3621.8462	1557.5538	0.050081386
878	0.00040361	1277.78	835.89	2075.75	2051.75	3611.7325	1559.9825	0.055530195
879	0.000411191	1281.08	838.49	2067.89	2040.5487	3599.48	1558.9313	0.060513555
880	0.000411913	1284.25	840.97	2060.08	2028.0787	3588.8225	1560.7438	0.066081119
881	0.000413357	1287.47	843.57	2052.48	2015.8262	3577.005	1561.1788	0.073255423
882	0.00042509	1290.38	846.09	2044.88	2007.67	3571.7125	1564.0425	0.080971426
883	0.000427076	1293.46	848.70	2035.36	1997.0124	3560.8737	1563.8613	0.088191418
884	0.00043556	1296.76	851.39	2025.98	1984.5787	3548.8387	1564.26	0.096074582
885	0.000437004	1299.67	854.00	2015.91	1975.7337	3538.5075	1562.7738	0.105796175
886	0.000439892	1302.36	856.60	2005.79	1964.7862	3526.0375	1561.2513	0.116398868
887	0.000440433	1305.49	859.16	1995.41	1950.5038	3512.8788	1562.375	0.126740314
888	0.000441697	1308.05	861.77	1984.99	1939.5925	3501.6775	1562.085	0.137070678
889	0.000451986	1310.48	864.29	1972.00	1927.7751	3489.4613	1561.6862	0.147935176
890	0.00046787	1313.35	866.76	1958.89	1912.1875	3477.1725	1564.985	0.159666715
891	0.000465523	1316.17	869.20	1946.20	1900.5513	3466.08	1565.5287	0.171991786
892	0.00046444	1318.56	871.59	1933.52	1888.77	3456.1475	1567.3775	0.182423529
893	0.00047148	1320.65	873.97	1919.80	1874.7412	3441.575	1566.8338	0.188984941
894	0.000469675	1323.16	876.28	1906.12	1864.1926	3433.3463	1569.1537	0.193951789
895	0.000477076	1325.86	878.49	1891.14	1856.6525	3423.595	1566.9425	0.199650749
896	0.000474729	1327.94	880.49	1876.11	1842.225	3409.6025	1567.3775	0.204359352
897	0.000481408	1330.07	882.49	1861.43	1829.3925	3398.7638	1569.3713	0.206101005
898	0.000494585	1331.98	884.35	1846.75	1817.285	3386.4025	1569.1175	0.205931759
899	0.000501986	1333.76	886.09	1833.85	1804.4163	3373.0988	1568.6825	0.205583859
900	0.000515884	1336.15	887.78	1820.82	1788.1037	3358.49	1570.3863	0.206461685
901	0.00051787	1338.15	889.48	1810.83	1776.105	3345.73	1569.625	0.209319983
902	0.00052509	1339.97	890.78	1800.76	1764.3237	3335.9425	1571.6188	0.212642825
903	0.000530325	1341.67	892.08	1792.85	1752.5425	3321.4425	1568.9	0.215254418
904	0.000534657	1343.14	893.39	1784.95	1741.5587	3310.205	1568.6463	0.219610168
905	0.000542058	1344.88	894.17	1777.96	1727.965	3296.14	1568.175	0.227942712
906	0.000549097	1346.36	894.99	1770.84	1715.6762	3282.51	1566.8338	0.23796241
907	0.000554693	1347.44	895.69	1764.45	1698.0225	3267.9375	1569.915	0.24734037
908	0.00056065	1349.27	895.99	1758.07	1690.5912	3257.7875	1567.1963	0.258112979
909	0.000569495	1350.35	896.25	1751.86	1671.9224	3244.7737	1572.8513	0.272488975
910	0.000577617	1351.05	896.56	1745.56	1661.6275	3229.7662	1568.1387	0.289001219
911	0.000584116	1352.44	896.17	1735.74	1646.7288	3216.245	1569.5162	0.305627981
912	0.000594585	1353.87	895.47	1726.06	1637.0137	3204.065	1567.0513	0.321805044
913	0.000605054	1354.96	894.86	1716.24	1618.0913	3190.9788	1572.8875	0.337478704
914	0.000617329	1355.87	893.95	1706.39	1602.9388	3173.4338	1570.495	0.35317978
915	0.000627437	1356.65	892.87	1696.57	1592.0275	3160.0575	1568.03	0.369196663
916	0.000642238	1357.47	891.78	1686.89	1582.6388	3147.95	1565.3112	0.384263496
917	0.000657401	1357.87	890.17	1673.08	1565.8549	3128.6287	1562.7738	0.397244054
918	0.000673466	1358.34	888.26	1659.27	1552.2612	3110.9025	1558.6413	0.40907487
919	0.000689892	1358.17	886.40	1645.19	1539.465	3094.1187	1554.6537	0.420883885
920	0.000711372	1358.65	884.18	1631.08	1526.3425	3072.6225	1546.28	0.432491898
921	0.000734116	1359.47	881.49	1616.79	1506.3325	3060.805	1554.4725	0.4436009
922	0.000756498	1359.86	878.79	1602.50	1496.1825	3043.695	1547.5125	0.4547448
923	0.000783032	1359.86	875.80	1585.91	1475.52	3028.9775	1553.4575	0.466237457
924	0.000812094	1359.86	872.37	1569.28	1461.3825	3009.91	1548.5275	0.476680623
925	0.000843682	1359.86	868.89	1549.09	1453.5163	2999.5425	1546.0262	0.484958333
926	0.000876173	1360.04	865.29	1528.80	1432.9263	2980.2213	1547.295	0.492795858
927	0.000911913	1359.95	861.08	1510.22	1426.8724	2969.9987	1543.1263	0.501441044
928	0.000950542	1359.56	856.86	1491.54	1409.8713	2949.9888	1540.1175	0.507390802
929	0.000990975	1359.65	852.56	1476.82	1393.9575	2937.7725	1543.815	0.507551584
930	0.001036101	1359.17	847.79	1462.14	1375.9051	2916.3488	1540.4437	0.505218938
931	0.001079422	1358.95	842.97	1447.63	1361.26	2901.3775	1540.1175	0.503461578
932	0.001127798	1358.65	837.97	1433.13	1352.4512	2883.5787	1531.1275	0.498051777
933	0.0011787	1358.04	832.20	1415.76	1339.655	2868.7888	1529.1338	0.484819817
934	0.001231047	1357.34	826.29	1398.43	1325.5175	2852.1138	1526.5963	0.467124451
935	0.001284838	1356.56	820.51	1379.67	1312.7212	2838.5562	1525.835	0.448870881
936	0.001340433	1355.35	814.09	1360.95	1296.2275	2818.5462	1522.3187	0.428621639
937	0.001398736	1354.56	807.79	1342.36	1285.6062	2800.6025	1514.9963	0.404382444
938	0.001459747	1354.17	801.40	1323.77	1268.7138	2788.5313	1519.8175	0.377274438
939	0.001522383	1352.96	794.28	1304.97	1250.19	2773.8138	1523.6238	0.349122224
940	0.00158917	1351.65	787.20	1286.16	1229.6362	2756.5225	1526.8863	0.321448836
941	0.001656679	1350.74	779.99	1272.09	1216.0062	2741.3337	1525.3275	0.295203462
942	0.001734116	1349.87	772.52	1257.98	1202.7025	2725.6375	1522.935	0.269341489
943	0.001812635	1348.35	764.92	1246.77	1183.0913	2709.5063	1526.415	0.243073976
944	0.001895848	1346.44	757.32	1235.70	1162.1387	2688.7712	1526.6325	0.218628488
945	0.00198574	1344.97	749.11	1225.49	1151.1187	2678.6937	1527.575	0.198064982
946	0.002077978	1344.14	740.82	1215.29	1134.4074	2669.9212	1535.5138	0.179756483
947	0.002177978	1342.45	732.52	1201.08	1113.3099	2650.5637	1537.2538	0.161899479
948	0.002288267	1340.67	723.93	1186.80	1098.3387	2631.2425	1532.9038	0.145671228
949	0.00240704	1339.06	715.24	1169.51	1077.1326	2610.5438	1533.4112	0.132391936
950	0.002529783	1337.06	706.64	1152.23	1071.405	2597.4213	1526.0163	0.120972814
951	0.002660469	1335.06	698.04	1134.72	1054.2225	2581.3263	1527.1038	0.11015027
952	0.00279639	1332.85	689.44	1117.22	1046.1387	2560.7725	1514.6338	0.100370492
953	0.002933394	1330.98	680.84	1100.63	1031.095	2549.5713	1518.4763	0.09221351
954	0.0030713	1328.94	671.33	1084.04	1025.4038	2531.4825	1506.0787	0.085084933
955	0.003203971	1325.94	661.43	1074.23	1013.84	2514.2275	1500.3875	0.078336593
956	0.003328159	1323.64	651.53	1064.54	1013.6588	2489.795	1476.1362	0.07227963
957	0.003441516	1321.38	641.84	1053.64	998.325	2476.6725	1478.3475	0.067286896
958	0.003545307	1319.56	632.25	1042.65	997.6	2460.07	1462.47	0.063018778
959	0.003636101	1316.87	622.73	1035.36	991.0387	2444.6275	1453.5888	0.059075637
960	0.003711552	1314.04	613.14	1027.93	988.2113	2428.8225	1440.6112	0.055530195
961	0.003775812	1311.96	603.54	1025.33	966.2801	2416.8963	1450.6162	0.052501628
962	0.003825632	1309.57	593.94	1022.63	964.7213	2400.0763	1435.355	0.049822567
963	0.003862274	1306.66	584.17	1021.94	955.985	2385.3588	1429.3738	0.047317117
964	0.003891877	1303.88	574.35	1021.24	944.7112	2379.45	1434.7388	0.045061831
965	0.003914621	1301.45	564.54	1008.43	939.9987	2379.45	1439.4513	0.043148114
966	0.003933213	1299.15	554.85	995.66	934.1626	2365.9288	1431.7662	0.041474341
967	0.003945307	1296.28	545.17	980.16	923.4325	2361.7962	1438.3637	0.039928674
968	0.003955415	1292.46	535.57	964.65	915.53	2348.855	1433.325	0.038551452
969	0.003961733	1289.68	525.93	948.15	907.5188	2346.6438	1439.125	0.037394019
970	0.003965523	1286.47	516.46	931.65	900.7037	2333.2312	1432.5275	0.036399567
971	0.003967509	1283.47	506.95	919.58	898.0575	2329.6062	1431.5487	0.035503323
972	0.003969675	1280.39	497.44	907.59	895.8462	2324.4225	1428.5763	0.034716806
973	0.003966787	1276.96	487.84	899.25	886.675	2309.4513	1422.7763	0.03405605
974	0.003963718	1273.18	478.38	891.09	869.6374	2293.7912	1424.1538	0.033478849
975	0.003957762	1268.88	468.95	886.09	870.3988	2292.1238	1421.725	0.03295104
976	0.00394639	1265.27	459.57	881.10	862.8587	2284.5837	1421.725	0.032528874
977	0.003934296	1262.06	450.28	877.06	851.4037	2278.095	1426.6913	0.032266499
978	0.003919495	1258.67	441.16	873.06	854.6663	2272.7663	1418.1	0.032119247
979	0.003900542	1254.59	432.19	866.76	857.3487	2273.7812	1416.4325	0.032041569
980	0.003879242	1250.99	423.19	860.38	855.935	2269.1775	1413.2425	0.032083201
981	0.003855776	1246.69	414.49	850.31	849.2288	2262.725	1413.4962	0.032286855
982	0.0038287	1242.69	406.00	840.10	844.6975	2258.7013	1414.0038	0.032571869
983	0.003801264	1239.00	397.40	828.98	837.8825	2251.5963	1413.7138	0.032890135
984	0.003771119	1234.79	389.10	817.78	834.8012	2246.63	1411.8288	0.033447146
985	0.003738267	1230.18	380.90	809.09	831.9013	2242.7875	1410.8862	0.034439864
986	0.003704693	1225.71	372.81	800.32	820.555	2240.2138	1419.6588	0.035777527
987	0.003668231	1221.58	364.71	800.32	820.0837	2231.9125	1411.8288	0.037349069
988	0.003630144	1216.98	356.61	800.32	807.7587	2230.3175	1422.5588	0.039249928
989	0.003591155	1212.98	348.61	800.32	807.6137	2224.01	1416.3963	0.041589656
990	0.003551444	1208.38	340.81	800.32	792.6788	2223.3213	1430.6425	0.044327743
991	0.003511011	1203.99	333.32	800.32	788.1475	2215.5275	1427.38	0.04739432
992	0.003468773	1198.91	325.82	800.32	787.5676	2211.2863	1423.7187	0.050752131
993	0.003426895	1193.61	318.62	800.32	779.8099	2209.4737	1429.6638	0.054377831
994	0.003381227	1189.01	311.62	800.32	768.6449	2203.0937	1434.4488	0.058271114
995	0.003337184	1184.49	304.62	800.32	767.195	2201.1725	1433.9775	0.062421998
996	0.00329278	1178.59	297.73	800.32	763.9325	2197.475	1433.5425	0.066758749
997	0.00324639	1172.99	290.83	800.32	760.2712	2192.7625	1432.4913	0.071210546
998	0.003201264	1169.12	284.03	800.32	749.1425	2190.8413	1441.6988	0.075771966
999	0.003155957	1163.39	277.53	800.32	741.9287	2191.4212	1449.4925	0.080453935
1000	0.003109567	1157.31	271.33	800.32	741.9287	2191.4212	1449.4925	0.085267381

];                                                                                                                                                                                                                                                                                                                                                                                                                                                                                                                                                                                                                                                                                                                                                                                                                                                                                                                                                                                                                                                                                                                                                                                                                                                                                                                                                                                                                                                                                                                                                                                                                                                                                                                                                                                                                                                                                                                                                                                                                                                                                                                                                                                                                                                                                                                                                                                                                                                                                                                                                                                                                                                                                                                                                                                                                                                                                                                                                                                                                                                                                                                                                                                                                                                                                                                                                                                                                                                                                                                                                                                                                                                                                                  